SpectraSuite Data File
++++++++++++++++++++++++++++++++++++
Date: Fri Jul 01 17:18:05 CST 2016
User: lahernandez
Dark Spectrum Present: Yes
Reference Spectrum Present: Yes
Number of Sampled Component Spectra: 1
Spectrometers: MAYP112250
Integration Time (usec): 100000 (MAYP112250)
Spectra Averaged: 10 (MAYP112250)
Boxcar Smoothing: 0 (MAYP112250)
Correct for Electrical Dark: No (MAYP112250)
Strobe/Lamp Enabled: No (MAYP112250)
Correct for Detector Non-linearity: No (MAYP112250)
Correct for Stray Light: No (MAYP112250)
Number of Pixels in Processed Spectrum: 2068
>>>>>Begin Processed Spectral Data<<<<<
189.52	-0.000
189.64	-1.342
189.76	-0.954
189.87	-0.412
189.99	-0.215
190.11	0.545
190.23	1.066
190.34	1.283
190.46	1.307
190.58	1.268
190.70	1.329
190.81	1.253
190.93	1.328
191.05	1.341
191.17	1.361
191.28	1.399
191.40	1.294
191.52	1.234
191.64	1.325
191.75	1.395
191.87	1.384
191.99	1.261
192.11	1.353
192.22	1.339
192.34	1.261
192.46	1.350
192.58	1.270
192.69	1.294
192.81	1.447
192.93	1.319
193.04	1.371
193.16	1.289
193.28	1.285
193.40	1.287
193.51	1.326
193.63	1.374
193.75	1.362
193.87	1.323
193.98	1.338
194.10	1.288
194.22	1.360
194.34	1.332
194.45	1.318
194.57	1.273
194.69	1.287
194.80	1.281
194.92	1.312
195.04	1.402
195.16	1.240
195.27	1.322
195.39	1.301
195.51	1.294
195.62	1.334
195.74	1.319
195.86	1.308
195.98	1.313
196.09	1.259
196.21	1.298
196.33	1.254
196.44	1.315
196.56	1.251
196.68	1.252
196.80	1.241
196.91	1.293
197.03	1.277
197.15	1.261
197.26	1.275
197.38	1.208
197.50	1.259
197.62	1.244
197.73	1.269
197.85	1.227
197.97	1.251
198.08	1.248
198.20	1.203
198.32	1.194
198.43	1.240
198.55	1.224
198.67	1.226
198.79	1.202
198.90	1.222
199.02	1.222
199.14	1.199
199.25	1.214
199.37	1.179
199.49	1.151
199.60	1.182
199.72	1.164
199.84	1.217
199.95	1.207
200.07	1.190
200.19	1.177
200.30	1.151
200.42	1.162
200.54	1.155
200.65	1.170
200.77	1.181
200.89	1.117
201.01	1.118
201.12	1.141
201.24	1.149
201.36	1.123
201.47	1.139
201.59	1.134
201.71	1.132
201.82	1.119
201.94	1.105
202.06	1.158
202.17	1.137
202.29	1.121
202.41	1.097
202.52	1.115
202.64	1.098
202.76	1.098
202.87	1.126
202.99	1.097
203.11	1.078
203.22	1.116
203.34	1.080
203.46	1.077
203.57	1.074
203.69	1.095
203.81	1.078
203.92	1.074
204.04	1.058
204.16	1.069
204.27	1.046
204.39	1.061
204.50	1.040
204.62	1.051
204.74	1.032
204.85	1.052
204.97	1.023
205.09	1.033
205.20	1.027
205.32	1.017
205.44	1.034
205.55	1.005
205.67	1.023
205.79	1.033
205.90	1.013
206.02	1.035
206.14	1.039
206.25	1.020
206.37	1.002
206.48	1.009
206.60	0.994
206.72	1.013
206.83	0.988
206.95	0.985
207.07	0.978
207.18	0.972
207.30	0.976
207.42	0.962
207.53	0.967
207.65	0.956
207.76	0.964
207.88	0.950
208.00	0.973
208.11	0.954
208.23	0.937
208.35	0.948
208.46	0.926
208.58	0.931
208.69	0.922
208.81	0.926
208.93	0.923
209.04	0.924
209.16	0.904
209.27	0.903
209.39	0.897
209.51	0.911
209.62	0.905
209.74	0.877
209.86	0.884
209.97	0.871
210.09	0.883
210.20	0.859
210.32	0.869
210.44	0.861
210.55	0.851
210.67	0.852
210.78	0.844
210.90	0.837
211.02	0.846
211.13	0.846
211.25	0.826
211.36	0.828
211.48	0.815
211.60	0.817
211.71	0.818
211.83	0.803
211.94	0.809
212.06	0.798
212.18	0.790
212.29	0.786
212.41	0.783
212.52	0.778
212.64	0.783
212.76	0.773
212.87	0.765
212.99	0.749
213.10	0.745
213.22	0.751
213.34	0.744
213.45	0.742
213.57	0.728
213.68	0.728
213.80	0.735
213.91	0.714
214.03	0.715
214.15	0.702
214.26	0.706
214.38	0.698
214.49	0.694
214.61	0.687
214.73	0.682
214.84	0.684
214.96	0.668
215.07	0.671
215.19	0.666
215.30	0.654
215.42	0.648
215.54	0.647
215.65	0.644
215.77	0.639
215.88	0.635
216.00	0.632
216.11	0.622
216.23	0.622
216.34	0.615
216.46	0.608
216.58	0.601
216.69	0.587
216.81	0.591
216.92	0.590
217.04	0.581
217.15	0.582
217.27	0.573
217.39	0.569
217.50	0.565
217.62	0.564
217.73	0.562
217.85	0.546
217.96	0.540
218.08	0.540
218.19	0.539
218.31	0.536
218.43	0.526
218.54	0.523
218.66	0.517
218.77	0.511
218.89	0.507
219.00	0.499
219.12	0.497
219.23	0.495
219.35	0.487
219.46	0.485
219.58	0.478
219.70	0.474
219.81	0.467
219.93	0.464
220.04	0.467
220.16	0.456
220.27	0.449
220.39	0.449
220.50	0.444
220.62	0.441
220.73	0.435
220.85	0.432
220.96	0.427
221.08	0.424
221.19	0.425
221.31	0.417
221.42	0.411
221.54	0.409
221.66	0.402
221.77	0.399
221.89	0.397
222.00	0.390
222.12	0.389
222.23	0.385
222.35	0.381
222.46	0.376
222.58	0.375
222.69	0.368
222.81	0.366
222.92	0.363
223.04	0.360
223.15	0.355
223.27	0.347
223.38	0.349
223.50	0.343
223.61	0.339
223.73	0.335
223.84	0.335
223.96	0.335
224.07	0.327
224.19	0.326
224.30	0.324
224.42	0.319
224.53	0.316
224.65	0.314
224.76	0.312
224.88	0.310
224.99	0.306
225.11	0.300
225.22	0.301
225.34	0.291
225.45	0.294
225.57	0.290
225.68	0.289
225.80	0.287
225.91	0.282
226.03	0.277
226.14	0.280
226.26	0.277
226.37	0.271
226.49	0.268
226.60	0.268
226.72	0.267
226.83	0.261
226.95	0.261
227.06	0.258
227.18	0.256
227.29	0.253
227.41	0.252
227.52	0.248
227.64	0.244
227.75	0.244
227.87	0.238
227.98	0.240
228.10	0.236
228.21	0.238
228.33	0.233
228.44	0.229
228.55	0.228
228.67	0.229
228.78	0.224
228.90	0.222
229.01	0.226
229.13	0.220
229.24	0.215
229.36	0.214
229.47	0.212
229.59	0.216
229.70	0.211
229.82	0.207
229.93	0.207
230.05	0.203
230.16	0.205
230.28	0.201
230.39	0.200
230.50	0.200
230.62	0.198
230.73	0.194
230.85	0.198
230.96	0.193
231.08	0.190
231.19	0.191
231.31	0.188
231.42	0.190
231.54	0.186
231.65	0.184
231.76	0.183
231.88	0.183
231.99	0.178
232.11	0.178
232.22	0.179
232.34	0.174
232.45	0.177
232.57	0.178
232.68	0.176
232.79	0.174
232.91	0.172
233.02	0.168
233.14	0.168
233.25	0.168
233.37	0.169
233.48	0.165
233.59	0.166
233.71	0.162
233.82	0.162
233.94	0.162
234.05	0.162
234.17	0.161
234.28	0.161
234.40	0.160
234.51	0.158
234.62	0.159
234.74	0.156
234.85	0.154
234.97	0.153
235.08	0.154
235.20	0.148
235.31	0.149
235.42	0.150
235.54	0.150
235.65	0.149
235.77	0.148
235.88	0.148
235.99	0.144
236.11	0.142
236.22	0.144
236.34	0.147
236.45	0.142
236.57	0.142
236.68	0.144
236.79	0.141
236.91	0.142
237.02	0.140
237.14	0.139
237.25	0.140
237.36	0.137
237.48	0.136
237.59	0.138
237.71	0.137
237.82	0.138
237.93	0.138
238.05	0.139
238.16	0.140
238.28	0.135
238.39	0.135
238.50	0.131
238.62	0.133
238.73	0.131
238.85	0.131
238.96	0.132
239.07	0.129
239.19	0.130
239.30	0.132
239.42	0.132
239.53	0.130
239.64	0.131
239.76	0.130
239.87	0.129
239.99	0.129
240.10	0.128
240.21	0.125
240.33	0.125
240.44	0.128
240.55	0.127
240.67	0.126
240.78	0.126
240.90	0.126
241.01	0.125
241.12	0.126
241.24	0.127
241.35	0.122
241.47	0.124
241.58	0.122
241.69	0.123
241.81	0.127
241.92	0.124
242.03	0.125
242.15	0.122
242.26	0.122
242.37	0.121
242.49	0.122
242.60	0.121
242.72	0.120
242.83	0.121
242.94	0.119
243.06	0.119
243.17	0.120
243.28	0.119
243.40	0.118
243.51	0.119
243.63	0.121
243.74	0.115
243.85	0.120
243.97	0.118
244.08	0.117
244.19	0.120
244.31	0.116
244.42	0.119
244.53	0.116
244.65	0.115
244.76	0.116
244.87	0.118
244.99	0.119
245.10	0.115
245.21	0.115
245.33	0.113
245.44	0.115
245.56	0.116
245.67	0.115
245.78	0.114
245.90	0.118
246.01	0.115
246.12	0.114
246.24	0.115
246.35	0.114
246.46	0.112
246.58	0.115
246.69	0.115
246.80	0.116
246.92	0.109
247.03	0.109
247.14	0.111
247.26	0.109
247.37	0.112
247.48	0.113
247.60	0.114
247.71	0.111
247.82	0.111
247.94	0.109
248.05	0.111
248.16	0.110
248.28	0.111
248.39	0.110
248.50	0.112
248.62	0.113
248.73	0.112
248.84	0.110
248.95	0.112
249.07	0.110
249.18	0.113
249.29	0.110
249.41	0.111
249.52	0.108
249.63	0.107
249.75	0.111
249.86	0.109
249.97	0.110
250.09	0.112
250.20	0.111
250.31	0.109
250.43	0.107
250.54	0.110
250.65	0.108
250.76	0.109
250.88	0.109
250.99	0.109
251.10	0.105
251.22	0.106
251.33	0.104
251.44	0.107
251.56	0.106
251.67	0.106
251.78	0.104
251.90	0.106
252.01	0.107
252.12	0.106
252.23	0.105
252.35	0.108
252.46	0.108
252.57	0.109
252.69	0.103
252.80	0.106
252.91	0.103
253.02	0.104
253.14	0.105
253.25	0.106
253.36	0.105
253.48	0.107
253.59	0.104
253.70	0.108
253.81	0.107
253.93	0.106
254.04	0.100
254.15	0.104
254.27	0.105
254.38	0.106
254.49	0.107
254.60	0.107
254.72	0.106
254.83	0.103
254.94	0.099
255.06	0.105
255.17	0.105
255.28	0.104
255.39	0.107
255.51	0.103
255.62	0.098
255.73	0.104
255.84	0.103
255.96	0.106
256.07	0.104
256.18	0.104
256.29	0.102
256.41	0.102
256.52	0.099
256.63	0.105
256.75	0.101
256.86	0.104
256.97	0.102
257.08	0.103
257.20	0.103
257.31	0.100
257.42	0.101
257.53	0.102
257.65	0.100
257.76	0.100
257.87	0.102
257.98	0.104
258.10	0.100
258.21	0.099
258.32	0.101
258.43	0.099
258.55	0.099
258.66	0.101
258.77	0.099
258.88	0.100
259.00	0.098
259.11	0.099
259.22	0.099
259.33	0.097
259.45	0.101
259.56	0.098
259.67	0.099
259.78	0.099
259.89	0.098
260.01	0.102
260.12	0.095
260.23	0.098
260.34	0.097
260.46	0.100
260.57	0.100
260.68	0.102
260.79	0.098
260.91	0.098
261.02	0.096
261.13	0.097
261.24	0.098
261.35	0.101
261.47	0.099
261.58	0.096
261.69	0.099
261.80	0.096
261.92	0.096
262.03	0.098
262.14	0.098
262.25	0.095
262.36	0.097
262.48	0.095
262.59	0.098
262.70	0.097
262.81	0.094
262.93	0.091
263.04	0.097
263.15	0.095
263.26	0.097
263.37	0.095
263.49	0.097
263.60	0.097
263.71	0.096
263.82	0.095
263.93	0.094
264.05	0.093
264.16	0.095
264.27	0.093
264.38	0.093
264.49	0.097
264.61	0.095
264.72	0.093
264.83	0.096
264.94	0.094
265.05	0.095
265.17	0.092
265.28	0.092
265.39	0.093
265.50	0.091
265.61	0.094
265.73	0.091
265.84	0.095
265.95	0.094
266.06	0.090
266.17	0.092
266.29	0.092
266.40	0.092
266.51	0.092
266.62	0.092
266.73	0.091
266.84	0.097
266.96	0.093
267.07	0.093
267.18	0.096
267.29	0.091
267.40	0.093
267.52	0.090
267.63	0.093
267.74	0.091
267.85	0.093
267.96	0.094
268.07	0.087
268.19	0.087
268.30	0.091
268.41	0.088
268.52	0.091
268.63	0.090
268.74	0.093
268.86	0.088
268.97	0.091
269.08	0.090
269.19	0.089
269.30	0.087
269.41	0.090
269.53	0.090
269.64	0.088
269.75	0.087
269.86	0.089
269.97	0.088
270.08	0.089
270.20	0.087
270.31	0.090
270.42	0.084
270.53	0.088
270.64	0.088
270.75	0.085
270.87	0.090
270.98	0.089
271.09	0.087
271.20	0.084
271.31	0.086
271.42	0.091
271.53	0.086
271.65	0.085
271.76	0.089
271.87	0.085
271.98	0.088
272.09	0.087
272.20	0.087
272.31	0.088
272.43	0.087
272.54	0.087
272.65	0.087
272.76	0.085
272.87	0.084
272.98	0.083
273.09	0.084
273.21	0.085
273.32	0.083
273.43	0.087
273.54	0.084
273.65	0.083
273.76	0.080
273.87	0.083
273.98	0.084
274.10	0.084
274.21	0.081
274.32	0.082
274.43	0.083
274.54	0.081
274.65	0.082
274.76	0.078
274.87	0.079
274.99	0.085
275.10	0.078
275.21	0.079
275.32	0.085
275.43	0.081
275.54	0.081
275.65	0.084
275.76	0.081
275.88	0.083
275.99	0.082
276.10	0.079
276.21	0.080
276.32	0.082
276.43	0.079
276.54	0.083
276.65	0.079
276.76	0.082
276.88	0.080
276.99	0.082
277.10	0.079
277.21	0.079
277.32	0.077
277.43	0.076
277.54	0.079
277.65	0.080
277.76	0.082
277.87	0.080
277.99	0.081
278.10	0.081
278.21	0.079
278.32	0.083
278.43	0.074
278.54	0.069
278.65	0.076
278.76	0.078
278.87	0.078
278.98	0.076
279.09	0.078
279.21	0.080
279.32	0.076
279.43	0.078
279.54	0.077
279.65	0.078
279.76	0.075
279.87	0.075
279.98	0.075
280.09	0.075
280.20	0.076
280.31	0.073
280.42	0.073
280.54	0.072
280.65	0.074
280.76	0.073
280.87	0.074
280.98	0.075
281.09	0.074
281.20	0.072
281.31	0.070
281.42	0.076
281.53	0.075
281.64	0.073
281.75	0.075
281.86	0.075
281.97	0.073
282.09	0.072
282.20	0.073
282.31	0.072
282.42	0.074
282.53	0.073
282.64	0.071
282.75	0.072
282.86	0.072
282.97	0.069
283.08	0.076
283.19	0.075
283.30	0.072
283.41	0.071
283.52	0.073
283.63	0.071
283.74	0.072
283.85	0.072
283.97	0.070
284.08	0.068
284.19	0.071
284.30	0.070
284.41	0.070
284.52	0.076
284.63	0.072
284.74	0.070
284.85	0.070
284.96	0.067
285.07	0.068
285.18	0.066
285.29	0.071
285.40	0.071
285.51	0.070
285.62	0.067
285.73	0.071
285.84	0.067
285.95	0.068
286.06	0.069
286.17	0.069
286.28	0.068
286.39	0.072
286.51	0.069
286.62	0.067
286.73	0.068
286.84	0.071
286.95	0.066
287.06	0.069
287.17	0.068
287.28	0.068
287.39	0.067
287.50	0.065
287.61	0.063
287.72	0.067
287.83	0.067
287.94	0.066
288.05	0.067
288.16	0.063
288.27	0.065
288.38	0.065
288.49	0.067
288.60	0.063
288.71	0.067
288.82	0.067
288.93	0.064
289.04	0.064
289.15	0.067
289.26	0.066
289.37	0.064
289.48	0.066
289.59	0.062
289.70	0.065
289.81	0.064
289.92	0.067
290.03	0.068
290.14	0.066
290.25	0.066
290.36	0.064
290.47	0.063
290.58	0.065
290.69	0.063
290.80	0.064
290.91	0.068
291.02	0.059
291.13	0.063
291.24	0.059
291.35	0.061
291.46	0.060
291.57	0.064
291.68	0.060
291.79	0.060
291.90	0.063
292.01	0.061
292.12	0.067
292.23	0.062
292.34	0.062
292.45	0.063
292.56	0.064
292.67	0.061
292.78	0.060
292.89	0.060
293.00	0.061
293.11	0.059
293.22	0.058
293.33	0.059
293.44	0.059
293.55	0.061
293.66	0.062
293.77	0.058
293.88	0.061
293.99	0.057
294.10	0.056
294.21	0.062
294.32	0.057
294.43	0.062
294.54	0.060
294.64	0.060
294.75	0.062
294.86	0.059
294.97	0.060
295.08	0.062
295.19	0.059
295.30	0.058
295.41	0.055
295.52	0.058
295.63	0.057
295.74	0.059
295.85	0.056
295.96	0.056
296.07	0.057
296.18	0.056
296.29	0.058
296.40	0.057
296.51	0.057
296.62	0.061
296.73	0.055
296.84	0.060
296.95	0.053
297.06	0.056
297.17	0.054
297.27	0.054
297.38	0.054
297.49	0.056
297.60	0.053
297.71	0.057
297.82	0.060
297.93	0.055
298.04	0.055
298.15	0.055
298.26	0.056
298.37	0.056
298.48	0.052
298.59	0.054
298.70	0.056
298.81	0.055
298.92	0.056
299.03	0.055
299.13	0.053
299.24	0.052
299.35	0.051
299.46	0.049
299.57	0.051
299.68	0.053
299.79	0.053
299.90	0.053
300.01	0.052
300.12	0.055
300.23	0.054
300.34	0.050
300.45	0.051
300.56	0.054
300.66	0.052
300.77	0.052
300.88	0.053
300.99	0.050
301.10	0.053
301.21	0.054
301.32	0.055
301.43	0.048
301.54	0.051
301.65	0.052
301.76	0.055
301.87	0.053
301.97	0.052
302.08	0.050
302.19	0.054
302.30	0.047
302.41	0.052
302.52	0.052
302.63	0.050
302.74	0.052
302.85	0.051
302.96	0.051
303.06	0.054
303.17	0.049
303.28	0.053
303.39	0.046
303.50	0.047
303.61	0.048
303.72	0.047
303.83	0.049
303.94	0.047
304.05	0.047
304.15	0.050
304.26	0.049
304.37	0.050
304.48	0.052
304.59	0.050
304.70	0.048
304.81	0.049
304.92	0.049
305.03	0.046
305.13	0.048
305.24	0.050
305.35	0.049
305.46	0.046
305.57	0.046
305.68	0.046
305.79	0.046
305.90	0.048
306.01	0.045
306.11	0.047
306.22	0.048
306.33	0.048
306.44	0.048
306.55	0.044
306.66	0.044
306.77	0.046
306.88	0.043
306.98	0.045
307.09	0.047
307.20	0.042
307.31	0.047
307.42	0.047
307.53	0.044
307.64	0.042
307.74	0.046
307.85	0.045
307.96	0.043
308.07	0.048
308.18	0.045
308.29	0.042
308.40	0.045
308.50	0.041
308.61	0.043
308.72	0.043
308.83	0.042
308.94	0.043
309.05	0.045
309.16	0.041
309.26	0.041
309.37	0.043
309.48	0.046
309.59	0.045
309.70	0.043
309.81	0.043
309.92	0.043
310.02	0.041
310.13	0.042
310.24	0.040
310.35	0.045
310.46	0.042
310.57	0.041
310.68	0.044
310.78	0.043
310.89	0.044
311.00	0.038
311.11	0.038
311.22	0.041
311.33	0.041
311.43	0.041
311.54	0.040
311.65	0.037
311.76	0.043
311.87	0.040
311.98	0.039
312.08	0.040
312.19	0.040
312.30	0.040
312.41	0.038
312.52	0.042
312.63	0.040
312.73	0.039
312.84	0.041
312.95	0.038
313.06	0.038
313.17	0.039
313.27	0.038
313.38	0.040
313.49	0.038
313.60	0.036
313.71	0.037
313.82	0.042
313.92	0.039
314.03	0.038
314.14	0.035
314.25	0.039
314.36	0.038
314.46	0.036
314.57	0.034
314.68	0.037
314.79	0.039
314.90	0.039
315.00	0.041
315.11	0.033
315.22	0.035
315.33	0.038
315.44	0.036
315.55	0.040
315.65	0.034
315.76	0.034
315.87	0.034
315.98	0.036
316.09	0.037
316.19	0.036
316.30	0.035
316.41	0.038
316.52	0.038
316.63	0.038
316.73	0.036
316.84	0.034
316.95	0.035
317.06	0.039
317.16	0.037
317.27	0.035
317.38	0.037
317.49	0.037
317.60	0.036
317.70	0.035
317.81	0.031
317.92	0.037
318.03	0.038
318.14	0.035
318.24	0.035
318.35	0.035
318.46	0.033
318.57	0.035
318.67	0.035
318.78	0.031
318.89	0.034
319.00	0.037
319.11	0.033
319.21	0.034
319.32	0.032
319.43	0.035
319.54	0.034
319.64	0.035
319.75	0.032
319.86	0.036
319.97	0.032
320.08	0.034
320.18	0.034
320.29	0.033
320.40	0.030
320.51	0.032
320.61	0.032
320.72	0.030
320.83	0.029
320.94	0.032
321.04	0.033
321.15	0.030
321.26	0.029
321.37	0.032
321.47	0.034
321.58	0.030
321.69	0.032
321.80	0.031
321.90	0.033
322.01	0.031
322.12	0.031
322.23	0.027
322.33	0.031
322.44	0.027
322.55	0.035
322.66	0.030
322.76	0.031
322.87	0.028
322.98	0.031
323.09	0.031
323.19	0.032
323.30	0.030
323.41	0.029
323.52	0.031
323.62	0.028
323.73	0.030
323.84	0.028
323.95	0.028
324.05	0.033
324.16	0.032
324.27	0.028
324.38	0.033
324.48	0.030
324.59	0.031
324.70	0.028
324.80	0.033
324.91	0.026
325.02	0.028
325.13	0.028
325.23	0.034
325.34	0.030
325.45	0.028
325.56	0.027
325.66	0.027
325.77	0.028
325.88	0.026
325.98	0.026
326.09	0.029
326.20	0.030
326.31	0.030
326.41	0.026
326.52	0.030
326.63	0.028
326.73	0.027
326.84	0.028
326.95	0.029
327.06	0.027
327.16	0.024
327.27	0.028
327.38	0.026
327.48	0.027
327.59	0.026
327.70	0.030
327.81	0.030
327.91	0.025
328.02	0.025
328.13	0.024
328.23	0.025
328.34	0.027
328.45	0.026
328.55	0.028
328.66	0.024
328.77	0.027
328.88	0.026
328.98	0.026
329.09	0.024
329.20	0.023
329.30	0.023
329.41	0.027
329.52	0.027
329.62	0.026
329.73	0.026
329.84	0.022
329.94	0.025
330.05	0.026
330.16	0.022
330.27	0.025
330.37	0.029
330.48	0.023
330.59	0.026
330.69	0.025
330.80	0.025
330.91	0.021
331.01	0.023
331.12	0.024
331.23	0.024
331.33	0.028
331.44	0.021
331.55	0.025
331.65	0.027
331.76	0.026
331.87	0.026
331.97	0.022
332.08	0.027
332.19	0.022
332.29	0.023
332.40	0.022
332.51	0.024
332.61	0.025
332.72	0.023
332.83	0.023
332.93	0.024
333.04	0.027
333.15	0.027
333.25	0.031
333.36	0.025
333.47	0.020
333.57	0.028
333.68	0.020
333.79	0.021
333.89	0.021
334.00	0.022
334.11	0.020
334.21	0.027
334.32	0.020
334.43	0.020
334.53	0.018
334.64	0.022
334.75	0.015
334.85	0.020
334.96	0.023
335.07	0.022
335.17	0.020
335.28	0.019
335.38	0.022
335.49	0.018
335.60	0.019
335.70	0.022
335.81	0.018
335.92	0.020
336.02	0.025
336.13	0.019
336.24	0.015
336.34	0.019
336.45	0.019
336.55	0.020
336.66	0.019
336.77	0.022
336.87	0.020
336.98	0.017
337.09	0.018
337.19	0.019
337.30	0.017
337.41	0.020
337.51	0.018
337.62	0.017
337.72	0.020
337.83	0.023
337.94	0.021
338.04	0.021
338.15	0.021
338.26	0.017
338.36	0.010
338.47	0.020
338.57	0.023
338.68	0.019
338.79	0.022
338.89	0.017
339.00	0.019
339.10	0.020
339.21	0.021
339.32	0.017
339.42	0.020
339.53	0.017
339.64	0.016
339.74	0.013
339.85	0.018
339.95	0.016
340.06	0.017
340.17	0.016
340.27	0.017
340.38	0.015
340.48	0.017
340.59	0.023
340.70	0.021
340.80	0.016
340.91	0.014
341.01	0.016
341.12	0.017
341.23	0.016
341.33	0.014
341.44	0.013
341.54	0.021
341.65	0.015
341.76	0.013
341.86	0.017
341.97	0.018
342.07	0.019
342.18	0.016
342.29	0.016
342.39	0.018
342.50	0.013
342.60	0.016
342.71	0.013
342.81	0.015
342.92	0.014
343.03	0.015
343.13	0.020
343.24	0.016
343.34	0.012
343.45	0.016
343.56	0.014
343.66	0.014
343.77	0.020
343.87	0.012
343.98	0.012
344.08	0.014
344.19	0.017
344.30	0.012
344.40	0.012
344.51	0.012
344.61	0.013
344.72	0.009
344.82	0.015
344.93	0.017
345.04	0.011
345.14	0.017
345.25	0.016
345.35	0.015
345.46	0.016
345.56	0.013
345.67	0.014
345.77	0.010
345.88	0.017
345.99	0.018
346.09	0.013
346.20	0.011
346.30	0.013
346.41	0.012
346.51	0.012
346.62	0.015
346.72	0.010
346.83	0.014
346.94	0.015
347.04	0.015
347.15	0.014
347.25	0.012
347.36	0.015
347.46	0.011
347.57	0.016
347.67	0.013
347.78	0.015
347.89	0.013
347.99	0.011
348.10	0.012
348.20	0.015
348.31	0.015
348.41	0.010
348.52	0.016
348.62	0.013
348.73	0.011
348.83	0.011
348.94	0.007
349.04	0.010
349.15	0.011
349.26	0.016
349.36	0.011
349.47	0.013
349.57	0.011
349.68	0.009
349.78	0.010
349.89	0.012
349.99	0.014
350.10	0.010
350.20	0.007
350.31	0.011
350.41	0.010
350.52	0.016
350.62	0.017
350.73	0.011
350.83	0.016
350.94	0.015
351.04	0.012
351.15	0.009
351.25	0.013
351.36	0.004
351.46	0.012
351.57	0.009
351.68	0.012
351.78	0.013
351.89	0.012
351.99	0.008
352.10	0.014
352.20	0.010
352.31	0.008
352.41	0.007
352.52	0.011
352.62	0.010
352.73	0.009
352.83	0.012
352.94	0.012
353.04	0.008
353.15	0.005
353.25	0.003
353.36	0.009
353.46	0.006
353.57	0.005
353.67	0.010
353.78	0.009
353.88	0.008
353.99	0.006
354.09	0.006
354.20	0.004
354.30	0.004
354.41	0.009
354.51	0.012
354.62	0.008
354.72	0.016
354.83	0.012
354.93	0.010
355.03	0.007
355.14	0.005
355.24	0.008
355.35	0.007
355.45	0.008
355.56	0.003
355.66	0.005
355.77	0.005
355.87	0.008
355.98	0.007
356.08	0.012
356.19	0.003
356.29	0.004
356.40	0.002
356.50	0.005
356.61	0.006
356.71	0.004
356.82	0.006
356.92	0.002
357.03	0.006
357.13	0.010
357.23	0.006
357.34	0.006
357.44	0.009
357.55	0.008
357.65	0.004
357.76	0.006
357.86	0.010
357.97	0.011
358.07	0.009
358.18	0.004
358.28	0.006
358.39	0.003
358.49	0.004
358.59	0.006
358.70	0.008
358.80	0.005
358.91	0.006
359.01	0.007
359.12	0.003
359.22	0.003
359.33	-0.001
359.43	0.004
359.54	0.004
359.64	0.004
359.74	0.004
359.85	0.006
359.95	0.006
360.06	0.003
360.16	0.003
360.27	0.004
360.37	0.005
360.48	0.006
360.58	-0.001
360.68	0.002
360.79	0.004
360.89	-0.005
361.00	0.001
361.10	-0.001
361.21	-0.001
361.31	0.000
361.41	0.002
361.52	-0.001
361.62	0.003
361.73	0.005
361.83	0.002
361.94	0.001
362.04	-0.002
362.14	0.003
362.25	0.004
362.35	0.003
362.46	0.004
362.56	0.006
362.67	0.001
362.77	0.003
362.87	0.004
362.98	0.004
363.08	0.000
363.19	0.005
363.29	0.001
363.40	-0.004
363.50	0.004
363.60	0.006
363.71	0.002
363.81	0.004
363.92	0.003
364.02	-0.001
364.12	-0.002
364.23	-0.001
364.33	-0.001
364.44	-0.000
364.54	-0.009
364.64	0.002
364.75	0.001
364.85	0.000
364.96	0.003
365.06	0.003
365.16	-0.002
365.27	0.002
365.37	0.001
365.48	-0.003
365.58	0.006
365.68	-0.000
365.79	0.006
365.89	0.004
366.00	0.002
366.10	0.000
366.20	-0.002
366.31	-0.001
366.41	-0.001
366.52	-0.002
366.62	-0.000
366.72	0.001
366.83	0.004
366.93	-0.001
367.04	-0.002
367.14	-0.005
367.24	-0.001
367.35	0.004
367.45	-0.000
367.55	0.004
367.66	-0.005
367.76	0.002
367.87	-0.003
367.97	-0.004
368.07	-0.004
368.18	0.002
368.28	-0.008
368.39	-0.008
368.49	-0.005
368.59	-0.007
368.70	-0.002
368.80	0.001
368.90	0.000
369.01	-0.006
369.11	-0.001
369.21	-0.012
369.32	-0.005
369.42	0.001
369.53	0.002
369.63	0.000
369.73	-0.008
369.84	-0.005
369.94	0.000
370.04	-0.001
370.15	-0.001
370.25	-0.007
370.35	-0.007
370.46	-0.003
370.56	-0.009
370.67	-0.004
370.77	-0.010
370.87	-0.002
370.98	-0.001
371.08	-0.002
371.18	-0.000
371.29	-0.003
371.39	-0.000
371.49	-0.006
371.60	0.001
371.70	-0.005
371.80	-0.009
371.91	-0.001
372.01	-0.006
372.11	-0.002
372.22	-0.006
372.32	-0.007
372.42	-0.001
372.53	-0.002
372.63	-0.002
372.74	-0.004
372.84	-0.005
372.94	-0.011
373.05	-0.006
373.15	-0.005
373.25	-0.003
373.36	-0.002
373.46	-0.008
373.56	-0.008
373.67	-0.013
373.77	0.002
373.87	-0.002
373.98	-0.005
374.08	0.001
374.18	-0.003
374.29	-0.006
374.39	-0.000
374.49	-0.005
374.59	-0.004
374.70	-0.002
374.80	-0.004
374.90	-0.010
375.01	-0.009
375.11	-0.004
375.21	-0.006
375.32	-0.007
375.42	-0.001
375.52	-0.001
375.63	-0.002
375.73	-0.005
375.83	-0.002
375.94	-0.001
376.04	-0.008
376.14	-0.003
376.25	-0.006
376.35	-0.004
376.45	-0.007
376.55	-0.006
376.66	-0.005
376.76	-0.007
376.86	-0.011
376.97	-0.003
377.07	-0.011
377.17	-0.007
377.28	0.000
377.38	-0.008
377.48	-0.008
377.59	-0.002
377.69	-0.007
377.79	-0.005
377.89	0.000
378.00	-0.002
378.10	-0.001
378.20	-0.003
378.31	-0.004
378.41	-0.004
378.51	0.002
378.61	-0.005
378.72	-0.009
378.82	-0.003
378.92	-0.001
379.03	-0.009
379.13	0.001
379.23	-0.001
379.33	-0.000
379.44	-0.004
379.54	-0.002
379.64	-0.007
379.75	-0.004
379.85	-0.005
379.95	-0.004
380.05	0.003
380.16	0.002
380.26	-0.002
380.36	-0.007
380.47	-0.007
380.57	-0.007
380.67	-0.004
380.77	-0.009
380.88	-0.005
380.98	-0.011
381.08	-0.007
381.18	0.000
381.29	-0.015
381.39	-0.007
381.49	-0.012
381.60	-0.011
381.70	-0.006
381.80	-0.009
381.90	-0.008
382.01	-0.010
382.11	-0.010
382.21	-0.005
382.31	-0.004
382.42	-0.005
382.52	-0.008
382.62	-0.004
382.72	-0.006
382.83	-0.005
382.93	-0.008
383.03	-0.008
383.13	-0.007
383.24	-0.007
383.34	-0.000
383.44	-0.011
383.54	-0.008
383.65	-0.006
383.75	-0.011
383.85	-0.002
383.95	-0.004
384.06	-0.006
384.16	-0.009
384.26	-0.005
384.36	-0.001
384.47	-0.006
384.57	-0.008
384.67	-0.010
384.77	-0.009
384.88	-0.005
384.98	-0.008
385.08	-0.006
385.18	-0.005
385.28	-0.007
385.39	-0.010
385.49	-0.009
385.59	-0.009
385.69	-0.011
385.80	-0.014
385.90	-0.007
386.00	-0.007
386.10	-0.010
386.21	-0.005
386.31	-0.008
386.41	-0.004
386.51	-0.014
386.61	-0.007
386.72	-0.010
386.82	-0.002
386.92	-0.013
387.02	-0.010
387.13	-0.011
387.23	-0.006
387.33	-0.011
387.43	-0.009
387.53	-0.011
387.64	-0.017
387.74	-0.005
387.84	-0.010
387.94	-0.007
388.05	-0.011
388.15	-0.010
388.25	-0.007
388.35	-0.010
388.45	-0.007
388.56	-0.010
388.66	-0.008
388.76	-0.009
388.86	-0.002
388.96	-0.007
389.07	-0.011
389.17	-0.015
389.27	-0.006
389.37	-0.011
389.47	-0.012
389.58	-0.013
389.68	-0.009
389.78	-0.012
389.88	-0.005
389.98	-0.000
390.09	-0.009
390.19	-0.006
390.29	-0.004
390.39	-0.018
390.49	-0.002
390.60	-0.014
390.70	-0.011
390.80	-0.007
390.90	-0.015
391.00	-0.020
391.10	0.001
391.21	-0.015
391.31	-0.015
391.41	-0.007
391.51	-0.016
391.61	-0.017
391.72	-0.007
391.82	-0.014
391.92	-0.007
392.02	-0.013
392.12	-0.015
392.22	-0.020
392.33	-0.010
392.43	-0.009
392.53	-0.013
392.63	-0.010
392.73	-0.012
392.83	-0.010
392.94	-0.006
393.04	-0.009
393.14	-0.000
393.24	-0.004
393.34	-0.010
393.45	-0.014
393.55	-0.007
393.65	-0.006
393.75	-0.011
393.85	-0.009
393.95	-0.004
394.05	-0.010
394.16	-0.011
394.26	-0.009
394.36	-0.013
394.46	-0.009
394.56	-0.009
394.66	-0.009
394.77	-0.009
394.87	-0.007
394.97	-0.006
395.07	-0.009
395.17	-0.007
395.27	-0.010
395.37	-0.011
395.48	-0.006
395.58	-0.008
395.68	-0.013
395.78	-0.012
395.88	-0.010
395.98	-0.007
396.09	-0.010
396.19	-0.018
396.29	-0.017
396.39	-0.008
396.49	-0.013
396.59	-0.008
396.69	-0.021
396.80	-0.010
396.90	-0.008
397.00	-0.015
397.10	-0.011
397.20	-0.010
397.30	-0.012
397.40	-0.017
397.50	-0.016
397.61	-0.009
397.71	-0.011
397.81	-0.017
397.91	-0.016
398.01	-0.016
398.11	-0.019
398.21	-0.013
398.31	-0.021
398.42	-0.014
398.52	-0.009
398.62	-0.012
398.72	-0.009
398.82	-0.019
398.92	-0.015
399.02	-0.017
399.12	-0.013
399.23	-0.022
399.33	-0.015
399.43	-0.014
399.53	-0.007
399.63	-0.014
399.73	-0.017
399.83	-0.018
399.93	-0.009
400.03	-0.016
400.14	-0.013
400.24	-0.014
400.34	-0.011
400.44	-0.019
400.54	-0.020
400.64	-0.017
400.74	-0.016
400.84	-0.018
400.94	-0.012
401.05	-0.023
401.15	-0.019
401.25	-0.015
401.35	-0.028
401.45	-0.010
401.55	-0.009
401.65	-0.017
401.75	-0.019
401.85	-0.021
401.95	-0.012
402.05	-0.020
402.16	-0.017
402.26	-0.016
402.36	-0.020
402.46	-0.017
402.56	-0.014
402.66	-0.010
402.76	-0.017
402.86	-0.016
402.96	-0.021
403.06	-0.018
403.16	-0.015
403.27	-0.019
403.37	-0.021
403.47	-0.022
403.57	-0.028
403.67	-0.013
403.77	-0.019
403.87	-0.025
403.97	-0.019
404.07	-0.024
404.17	-0.030
404.27	-0.031
404.37	-0.024
404.47	-0.018
404.58	-0.022
404.68	-0.030
404.78	-0.029
404.88	-0.028
404.98	-0.020
405.08	-0.016
405.18	-0.016
405.28	-0.026
405.38	-0.027
405.48	-0.021
405.58	-0.025
405.68	-0.019
405.78	-0.026
405.88	-0.016
405.98	-0.032
406.09	-0.023
406.19	-0.024
406.29	-0.029
406.39	-0.020
406.49	-0.025
406.59	-0.032
406.69	-0.032
406.79	-0.026
406.89	-0.032
406.99	-0.025
407.09	-0.030
407.19	-0.037
407.29	-0.038
407.39	-0.044
407.49	-0.034
407.59	-0.040
407.69	-0.028
407.79	-0.043
407.89	-0.034
407.99	-0.053
408.10	-0.044
408.20	-0.029
408.30	-0.031
408.40	-0.032
408.50	-0.044
408.60	-0.038
408.70	-0.039
408.80	-0.040
408.90	-0.056
409.00	-0.048
409.10	-0.054
409.20	-0.040
409.30	-0.044
409.40	-0.037
409.50	-0.047
409.60	-0.055
409.70	-0.056
409.80	-0.056
409.90	-0.047
410.00	-0.067
410.10	-0.050
410.20	-0.046
410.30	-0.046
410.40	-0.054
410.50	-0.033
410.60	-0.055
410.70	-0.057
410.80	-0.062
410.90	-0.060
411.00	-0.068
411.10	-0.073
411.20	-0.052
411.30	-0.085
411.40	-0.060
411.50	-0.078
411.60	-0.079
411.70	-0.062
411.80	-0.087
411.90	-0.059
412.00	-0.087
412.10	-0.115
412.20	-0.102
412.30	-0.096
412.40	-0.112
412.51	-0.100
412.61	-0.133
412.71	-0.114
412.81	-0.115
412.91	-0.122
413.01	-0.126
413.11	-0.144
413.21	-0.118
413.31	-0.142
413.40	-0.133
413.50	-0.145
413.60	-0.157
413.70	-0.211
413.80	-0.309
413.90	-0.000
414.00	-0.000
414.10	-0.000
414.20	-0.655
414.30	-1.110
>>>>>End Processed Spectral Data<<<<<
